# Wilkinson Microwave Anisotropy Probe (WMAP) 5-year data release.
# WMAP 5-Year Combined TT Power Spectrum, version 3.0 (February 2008)
#
# References: - WMAP Explanatory Supplement: http://lambda.gsfc.nasa.gov/
#             - Nolta, et.al. (2008)
#             - Dunkley, et.al. (2008)
#
# Column 1 = multipole moment l
# Column 2 = TT power spectrum, units = uK^2, =  l(l+1)/2pi * C_l.
# Column 3 = 'Error' derived from diagonal terms of Fisher matrix, units = uK^2.
#             Included only as an estimate of their magnitude.  The
#             multipole moments are slightly coupled, so a correct
#             treatment of errors requires use of the entire Fisher matrix.
# Column 4 = portion of column3 error attributed to measurement errors,
#             in "2SN + NN" form, units = uK^2.
# Column 5 = portion of column3 error attributed to cosmic variance, 
#             assuming the best-fit LCDM model described in
#             "Five-Year WMAP Observations: Likelihoods and Parameters from the WMAP data", 
#             Dunkley, et.al. (2008). Units = uK^2
# 
# The 5-yr TT power spectrum is produced by combining the  
# Maximum Likelihood estimated spectrum from l = 2-32 with the 
# pseudo-C_l based cross-power spectra for l > 32.  The errors 
# quoted in column 3 are all from the pseudo-C_l method.  The 
# actual ML errors are asymmetric.  The following table gives the 68% and 95% 
# ML confidence level (CL) intervals (including cosmic variance) in uK^2: 
# 
# 
#      l      dT2      -68%      +68%      -95%      +95% 
#  ------------------------------------------------------- 
#      2      213.       78.      678.       39.     3034.
#      3     1039.      534.     2470.      305.     6755.
#      4      674.      394.     1344.      253.     2976.
#      5     1527.      920.     2695.      632.     5269.
#      6      692.      442.     1155.      290.     2058.
#      7     1433.      930.     2215.      656.     3736.
#      8      556.      381.      852.      274.     1378.
#      9      579.      399.      871.      286.     1369.
#     10      754.      533.     1085.      393.     1639.
#     11      975.      702.     1386.      533.     2048.
#     12      791.      572.     1092.      430.     1583.
#     13      828.      601.     1135.      448.     1615.
#     14      805.      618.     1111.      471.     1547.
#     15     1078.      838.     1475.      650.     2023.
#     16      640.      478.      864.      370.     1199.
#     17      993.      779.     1331.      607.     1785.
#     18      703.      530.      908.      424.     1227.
#     19      822.      618.     1038.      494.     1384.
#     20      731.      579.      961.      465.     1272.
#     21      674.      525.      874.      413.     1151.
#     22      577.      445.      737.      351.      967.
#     23      766.      603.      966.      492.     1256.
#     24      809.      653.     1037.      524.     1329.
#     25      753.      586.      940.      470.     1213.
#     26      894.      710.     1104.      575.     1404.
#     27     1037.      840.     1289.      687.     1626.
#     28     1255.     1035.     1574.      844.     1963.
#     29     1222.      984.     1494.      820.     1882.
#     30      906.      736.     1122.      606.     1402.
#     31     1103.      915.     1364.      773.     1702.
#     32     1431.     1167.     1733.      982.     2150.
#
# Revision History:
#  v3   (7 Mar 2008) : initial release
#  v3p1 (8 Jul 2008) : fixed bug in column 4; was "SN+NN", not "2SN+NN"
# 
     2      213.4069      934.2714        5.5978      934.2546
     3     1038.6573      728.9514        5.9727      728.9269
     4      673.8259      595.1879        6.2562      595.1550
     5     1526.9226      505.6511        6.5129      505.6091
     6      692.0717      443.0213        6.7620      442.9697
     7     1432.7676      397.8419        7.0141      397.7801
     8      555.7322      364.5238        7.2745      364.4512
     9      579.1170      339.0285        7.5401      338.9446
    10      754.4681      319.4315        7.8147      319.3359
    11      975.0388      304.0342        8.0963      303.9263
    12      790.9219      291.5632        8.3810      291.4427
    13      827.6766      281.4107        8.6697      281.2771
    14      805.1919      273.1502        8.9633      273.0031
    15     1078.3898      266.2852        9.2595      266.1242
    16      639.5597      260.4388        9.5561      260.2634
    17      993.4459      255.5825        9.8559      255.3924
    18      703.3500      251.6959       10.1620      251.4906
    19      822.1944      248.4732       10.4710      248.2524
    20      731.2966      245.6387       10.7790      245.4021
    21      673.6049      243.2010       11.0871      242.9482
    22      576.8635      241.2006       11.3982      240.9311
    23      765.5804      239.5489       11.7112      239.2625
    24      809.4555      238.1513       12.0247      237.8476
    25      752.6671      236.9841       12.3392      236.6626
    26      893.9417      236.0413       12.6551      235.7018
    27     1037.0272      235.3179       12.9730      234.9600
    28     1254.8488      234.8004       13.2931      234.4238
    29     1222.3470      234.4396       13.6147      234.0439
    30      905.8812      234.1916       13.9371      233.7765
    31     1102.9618      234.0594       14.2605      233.6245
    32     1431.0562      234.0537       14.5857      233.5988
    33     1189.3630      234.1716       14.9130      233.6963
    34     1101.3940      234.4027       15.2424      233.9066
    35      888.4037      234.7182       15.5732      234.2010
    36     1078.8920      235.0949       15.9049      234.5562
    37     1433.0520      235.5449       16.2383      234.9845
    38     1472.4980      236.0825       16.5739      235.5000
    39     1407.3090      236.6992       16.9117      236.0943
    40     1897.1520      237.3816       17.2514      236.7539
    41     1223.4130      238.1186       17.5929      237.4678
    42     1299.0570      238.9057       17.9359      238.2315
    43     1421.0010      239.7402       18.2808      239.0422
    44     1416.3520      240.6196       18.6275      239.8975
    45     1101.0230      241.5415       18.9758      240.7949
    46     1120.9650      242.5043       19.3260      241.7330
    47     1666.0240      243.5089       19.6782      242.7125
    48      975.2934      244.5566       20.0327      243.7348
    49     1614.3940      245.6488       20.3894      244.8012
    50     1541.4760      246.7870       20.7487      245.9132
    51     1316.2580      247.9713       21.1106      247.0710
    52     1711.7960      249.1979       21.4750      248.2708
    53     1189.2370      250.4618       21.8417      249.5077
    54     1133.1090      251.7587       22.2107      250.7771
    55     1599.6120      253.0841       22.5824      252.0746
    56     1652.0060      254.4345       22.9558      253.3969
    57     1560.1590      255.8100       23.3315      254.7438
    58     1863.3520      257.2114       23.7096      256.1163
    59     1266.9600      258.6392       24.0901      257.5149
    60     2047.1170      260.0944       24.4727      258.9405
    61     1457.5460      261.5775       24.8581      260.3937
    62     2038.9010      263.0892       25.2461      261.8751
    63     1854.5780      264.6297       25.6368      263.3849
    64     1446.9700      266.1994       26.0306      264.9236
    65     1629.4790      267.7988       26.4267      266.4917
    66     1645.5130      269.4280       26.8265      268.0892
    67     1615.9590      271.0861       27.2286      269.7151
    68     1873.5580      272.7720       27.6341      271.3686
    69     2379.0550      274.4845       28.0423      273.0483
    70     1877.1120      276.2227       28.4537      274.7533
    71     1806.9400      277.9858       28.8677      276.4828
    72     1413.0520      279.7735       29.2852      278.2366
    73     2724.4810      281.5861       29.7052      280.0149
    74     2241.2260      283.4235       30.1288      281.8176
    75     2027.9810      285.2859       30.5551      283.6449
    76     1658.0010      287.1729       30.9847      285.4965
    77     2103.3330      289.0825       31.4175      287.3702
    78     1709.2650      291.0119       31.8533      289.2633
    79     1696.7040      292.9589       32.2920      291.1737
    80     2424.2970      294.9209       32.7334      293.0988
    81     2241.0520      296.8967       33.1774      295.0371
    82     2879.6760      298.8882       33.6243      296.9908
    83     1960.7920      300.8985       34.0745      298.9629
    84     1705.6210      302.9302       34.5278      300.9560
    85     2567.1330      304.9862       34.9847      302.9730
    86     2511.9380      307.0684       35.4452      305.0158
    87     2331.5980      309.1752       35.9092      307.0828
    88     2064.1290      311.3040       36.3766      309.1714
    89     2619.1830      313.4526       36.8473      311.2793
    90     2335.0050      315.6187       37.3213      313.4043
    91     2625.4250      317.8001       37.7984      315.5443
    92     2424.4590      319.9961       38.2787      317.6983
    93     2978.4310      322.2061       38.7619      319.8660
    94     2282.2580      324.4294       39.2483      322.0466
    95     2205.3090      326.6657       39.7379      324.2397
    96     2426.9320      328.9142       40.2305      326.4446
    97     2591.0970      331.1745       40.7261      328.6608
    98     1928.6440      333.4461       41.2248      330.8879
    99     2842.6030      335.7283       41.7265      333.1252
   100     3063.5350      338.0209       42.2311      335.3724
   101     2697.1800      340.3232       42.7390      337.6289
   102     2862.8620      342.6348       43.2496      339.8942
   103     2556.6420      344.9553       43.7634      342.1679
   104     3104.2010      347.2841       44.2801      344.4496
   105     2257.8920      349.6209       44.7994      346.7388
   106     2904.4490      351.9652       45.3221      349.0350
   107     3137.7480      354.3166       45.8478      351.3378
   108     3777.1030      356.6747       46.3762      353.6469
   109     3114.2680      359.0391       46.9076      355.9617
   110     3337.2710      361.4093       47.4417      358.2820
   111     2899.6250      363.7849       47.9790      360.6071
   112     3044.1060      366.1651       48.5189      362.9364
   113     2437.4870      368.5489       49.0616      365.2688
   114     2108.2020      370.9355       49.6070      367.6034
   115     3253.6770      373.3240       50.1554      369.9395
   116     3709.8350      375.7135       50.7063      372.2761
   117     4369.7840      378.1030       51.2597      374.6123
   118     4000.1770      380.4921       51.8158      376.9474
   119     3539.9520      382.8795       52.3744      379.2804
   120     2833.4900      385.2646       52.9352      381.6107
   121     4330.8160      387.6468       53.4988      383.9373
   122     3411.3980      390.0249       54.0645      386.2596
   123     3870.8190      392.3984       54.6324      388.5766
   124     2890.2900      394.7665       55.2029      390.8878
   125     3481.4250      397.1284       55.7753      393.1922
   126     3737.3710      399.4835       56.3502      395.4893
   127     3582.0510      401.8309       56.9269      397.7781
   128     3644.5890      404.1700       57.5058      400.0580
   129     3387.1470      406.4999       58.0868      402.3284
   130     3970.5780      408.8202       58.6697      404.5885
   131     3499.9690      411.1300       59.2544      406.8375
   132     3323.0880      413.4281       59.8413      409.0744
   133     3799.9400      415.7136       60.4297      411.2980
   134     3732.3990      417.9852       61.0193      413.5073
   135     4264.9110      420.2419       61.6112      415.7010
   136     4993.3700      422.4826       62.2044      417.8782
   137     3993.4070      424.7063       62.7990      420.0378
   138     4036.8460      426.9118       63.3946      422.1786
   139     4552.7450      429.0982       63.9920      424.2998
   140     4232.8120      431.2644       64.5904      426.4001
   141     4397.2420      433.4094       65.1896      428.4787
   142     4592.4090      435.5322       65.7898      430.5345
   143     4515.5110      437.6317       66.3911      432.5665
   144     3942.2190      439.7071       66.9927      434.5737
   145     5255.5900      441.7574       67.5948      436.5553
   146     4263.0240      443.7818       68.1995      438.5101
   147     4449.0830      445.7790       68.8034      440.4373
   148     3873.5160      447.7482       69.4072      442.3360
   149     3793.6890      449.6886       70.0114      444.2051
   150     4581.2720      451.5994       70.6179      446.0439
   151     4349.4270      453.4794       71.2226      447.8515
   152     4394.5750      455.3285       71.8274      449.6275
   153     4846.3330      457.1466       72.4333      451.3717
   154     4168.6590      458.9331       73.0376      453.0840
   155     4824.8120      460.6884       73.6435      454.7642
   156     4077.5630      462.4119       74.2495      456.4119
   157     4701.4560      464.1031       74.8535      458.0269
   158     5441.7480      465.7627       75.4604      459.6092
   159     5075.2340      467.3896       76.0655      461.1584
   160     4992.2930      468.9837       76.6688      462.6744
   161     4537.1600      470.5453       77.2742      464.1569
   162     4464.7840      472.0739       77.8791      465.6057
   163     4544.0150      473.5692       78.4829      467.0206
   164     4845.1660      475.0312       79.0875      468.4014
   165     4757.6600      476.4593       79.6893      469.7479
   166     5038.7030      477.8540       80.2935      471.0598
   167     5177.3610      479.2141       80.8949      472.3370
   168     5164.7240      480.5403       81.4965      473.5792
   169     5110.1360      481.8319       82.0970      474.7864
   170     4532.5820      483.0890       82.6971      475.9582
   171     4680.2180      484.3113       83.2972      477.0943
   172     4962.6220      485.4986       83.8967      478.1947
   173     5090.4700      486.6506       84.4950      479.2592
   174     4860.6920      487.7671       85.0922      480.2874
   175     5154.2300      488.8478       85.6879      481.2793
   176     5119.1260      489.8927       86.2831      482.2345
   177     5125.0830      490.9014       86.8781      483.1525
   178     4949.7690      491.8725       87.4699      484.0326
   179     6220.5020      492.8062       88.0619      484.8742
   180     5458.4970      493.7014       88.6521      485.6767
   181     4086.5400      494.5577       89.2413      486.4394
   182     4701.7350      495.3742       89.8277      487.1618
   183     5016.1570      496.1510       90.4146      487.8432
   184     5596.0930      496.8867       90.9984      488.4830
   185     5723.8830      497.5812       91.5812      489.0807
   186     5053.4480      498.2334       92.1606      489.6355
   187     5204.4160      498.8431       92.7376      490.1470
   188     6182.3110      499.4097       93.3135      490.6146
   189     6163.1540      499.9328       93.8876      491.0376
   190     5592.9560      500.4114       94.4590      491.4154
   191     5561.1810      500.8452       95.0274      491.7476
   192     6020.9600      501.2333       95.5926      492.0334
   193     5853.8170      501.5756       96.1555      492.2725
   194     5143.0380      501.8714       96.7161      492.4641
   195     4753.1950      502.1202       97.2739      492.6078
   196     5704.1200      502.3211       97.8280      492.7029
   197     5590.3840      502.4739       98.3792      492.7490
   198     5839.8950      502.5779       98.9266      492.7454
   199     5616.7990      502.6327       99.4714      492.6917
   200     5824.0210      502.6374      100.0105      492.5873
   201     5331.8000      502.5920      100.5473      492.4317
   202     5813.9770      502.4968      101.0804      492.2254
   203     5838.4000      502.3522      101.6095      491.9687
   204     6145.0620      502.1588      102.1358      491.6622
   205     5576.3680      501.9165      102.6572      491.3061
   206     5559.4000      501.6261      103.1746      490.9010
   207     5246.3930      501.2879      103.6876      490.4472
   208     5350.4520      500.9027      104.1975      489.9453
   209     4765.4910      500.4707      104.7039      489.3956
   210     6146.0500      499.9918      105.2044      488.7984
   211     5471.2440      499.4672      105.7020      488.1542
   212     5638.3300      498.8969      106.1950      487.4635
   213     5999.6250      498.2815      106.6852      486.7266
   214     5584.1760      497.6211      107.1698      485.9439
   215     6673.7330      496.9161      107.6495      485.1157
   216     5779.8060      496.1674      108.1261      484.2425
   217     5330.6480      495.3747      108.5978      483.3246
   218     6080.5960      494.5390      109.0658      482.3624
   219     5390.4050      493.6603      109.5291      481.3563
   220     6384.6700      492.7388      109.9869      480.3066
   221     6339.2170      491.7755      110.4418      479.2137
   222     5797.6100      490.7702      110.8912      478.0779
   223     5840.6810      489.7234      111.3361      476.8996
   224     5508.8480      488.6353      111.7754      475.6792
   225     5804.1300      487.5067      112.2113      474.4169
   226     5921.2210      486.3375      112.6415      473.1131
   227     5813.2590      485.1285      113.0680      471.7682
   228     4955.7600      483.8793      113.4879      470.3824
   229     5176.2590      482.5909      113.9039      468.9562
   230     5560.2730      481.2634      114.3145      467.4898
   231     5755.5370      479.8972      114.7204      465.9834
   232     6310.1090      478.4924      115.1207      464.4376
   233     6041.8760      477.0498      115.5167      462.8525
   234     4737.7080      475.5692      115.9069      461.2285
   235     6009.6650      474.0508      116.2905      459.5658
   236     6249.1660      472.4955      116.6702      457.8647
   237     5096.0410      470.9034      117.0444      456.1256
   238     5952.6180      469.2745      117.4125      454.3488
   239     5625.3550      467.6095      117.7757      452.5345
   240     6229.2770      465.9084      118.1331      450.6830
   241     5573.6550      464.1715      118.4845      448.7946
   242     5306.4100      462.3992      118.8298      446.8696
   243     5625.3880      460.5917      119.1698      444.9082
   244     5135.7620      458.7494      119.5036      442.9107
   245     6413.9920      456.8723      119.8309      440.8774
   246     5708.4700      454.9611      120.1526      438.8086
   247     6127.8690      453.0159      120.4688      436.7043
   248     5724.0120      451.0367      120.7776      434.5651
   249     4548.2760      449.0239      121.0802      432.3911
   250     5431.5690      446.9782      121.3773      430.1825
   251     5179.1540      444.8992      121.6669      427.9398
   252     6106.8030      442.7883      121.9503      425.6637
   253     4985.1400      440.6463      122.2274      423.3551
   254     5100.3830      438.4742      122.4982      421.0152
   255     5428.2370      436.2728      122.7624      418.6446
   256     5785.6250      434.0430      123.0197      416.2444
